18.09.2024	10:49
Amplitude: 0.50 V
Freq  (Hz) 	 Gain (dB)  	 Phase (deg)
1999.922	  0.783	 -1.791
2023.019	  0.805	 -1.747
2047.047	  0.818	 -1.821
2069.958	  0.838	 -1.803
2093.986	  0.855	 -1.865
2118.945	  0.874	 -1.888
2142.973	  0.896	 -1.894
2167.933	  0.917	 -1.953
2193.078	  0.938	 -2.005
2218.038	  0.957	 -1.999
2243.929	  0.985	 -2.026
2270.006	  1.006	 -2.015
2296.083	  1.026	 -2.158
2323.091	  1.054	 -2.088
2349.913	  1.080	 -2.128
2376.921	  1.104	 -2.171
2405.047	  1.131	 -2.201
2432.056	  1.157	 -2.240
2460.927	  1.185	 -2.281
2489.053	  1.212	 -2.292
2517.924	  1.244	 -2.325
2546.981	  1.274	 -2.366
2576.038	  1.307	 -2.380
2606.027	  1.340	 -2.409
2636.947	  1.373	 -2.483
2666.935	  1.403	 -2.540
2698.041	  1.441	 -2.572
2728.961	  1.477	 -2.641
2760.999	  1.519	 -2.598
2793.036	  1.553	 -2.688
2825.074	  1.590	 -2.742
2858.043	  1.631	 -2.766
2891.012	  1.670	 -2.871
2923.980	  1.712	 -2.887
2958.067	  1.759	 -2.906
2991.967	  1.803	 -2.903
3026.985	  1.847	 -2.992
3062.002	  1.894	 -3.042
3097.951	  1.942	 -3.134
3134.087	  1.993	 -3.177
3170.036	  2.043	 -3.303
3205.985	  2.093	 -3.292
3243.983	  2.148	 -3.333
3281.049	  2.204	 -3.387
3319.047	  2.263	 -3.439
3357.977	  2.317	 -3.570
3395.975	  2.381	 -3.611
3436.022	  2.447	 -3.699
3476.068	  2.512	 -3.743
3515.929	  2.579	 -3.848
3556.907	  2.644	 -3.947
3598.072	  2.716	 -3.972
3639.050	  2.786	 -4.057
3682.077	  2.865	 -4.133
3723.986	  2.942	 -4.238
3767.014	  3.022	 -4.272
3810.972	  3.104	 -4.432
3854.930	  3.190	 -4.539
3900.006	  3.279	 -4.624
3945.082	  3.369	 -4.698
3991.090	  3.460	 -4.853
4036.911	  3.560	 -4.913
4082.918	  3.658	 -5.085
4130.974	  3.765	 -5.165
4179.031	  3.875	 -5.323
4227.087	  3.989	 -5.413
4276.074	  4.104	 -5.578
4325.062	  4.225	 -5.686
4375.912	  4.351	 -5.948
4426.017	  4.480	 -6.020
4477.054	  4.614	 -6.198
4529.022	  4.761	 -6.425
4581.921	  4.904	 -6.549
4635.006	  5.060	 -6.766
4688.092	  5.337	 -7.104
4743.040	  5.382	 -7.232
4797.988	  5.551	 -7.390
4852.936	  5.847	 -7.628
4909.001	  6.035	 -7.999
4965.998	  6.221	 -8.074
5023.926	  6.447	 -8.988
5082.041	  6.647	 -8.634
5141.087	  6.872	 -8.974
5199.946	  7.114	 -9.432
5261.041	  7.370	 -9.946
5321.018	  7.630	-10.455
5383.044	  7.903	-10.863
5445.071	  8.198	-11.391
5508.028	  8.487	-12.069
5571.917	  8.810	-12.488
5636.923	  9.159	-13.229
5701.929	  9.533	-13.986
5768.053	  9.909	-14.750
5834.922	 10.325	-15.782
5901.977	 10.781	-16.905
5971.082	 11.254	-18.267
6039.999	 11.773	-19.520
6110.035	 12.313	-20.861
6181.002	 12.906	-22.992
6251.968	 13.548	-24.997
6324.984	 14.249	-27.869
6398.000	 15.014	-30.980
6471.947	 15.810	-34.953
6547.011	 16.683	-39.916
6623.007	 17.578	-46.084
6699.003	 18.464	-53.736
6777.048	 19.245	-63.419
6855.093	 19.797	-74.773
6935.000	 19.980	-87.835
7014.908	 19.733	-100.812
7095.933	 19.074	-112.710
7178.076	 18.136	-123.119
7262.081	 17.051	-131.623
7346.086	 15.959	-138.192
7431.023	 14.880	-143.134
7517.077	 13.854	-147.464
7604.063	 12.858	-150.898
7691.979	 11.937	-153.854
7781.014	 11.072	-156.214
7870.980	 10.251	-158.258
7962.063	  9.500	-159.720
8054.078	  8.750	-160.859
8147.955	  8.031	-162.952
8242.019	  7.377	-164.315
8337.013	  6.760	-164.820
8434.057	  6.120	-165.333
8532.032	  5.612	-166.326
8630.008	  5.066	-166.996
8730.032	  4.529	-167.689
8830.987	  4.012	-168.247
8933.991	  3.515	-168.800
9036.995	  3.022	-169.393
9142.049	  2.558	-169.659
9248.033	  2.098	-170.237
9354.949	  1.655	-170.501
9462.982	  1.226	-170.836
9573.065	  0.800	-171.140
9682.961	  0.399	-171.278
9796.023	 -0.020	-171.823
9909.086	 -0.404	-171.921
10024.011	 -0.796	-172.350
10140.054	 -1.179	-172.487
10257.028	 -1.543	-172.430
10376.051	 -1.911	-172.781
10496.005	 -2.266	-173.110
10618.009	 -2.628	-173.452
10740.943	 -2.976	-173.872
10864.995	 -3.287	-173.514
10990.910	 -3.639	-174.068
11117.943	 -3.968	-174.143
11247.024	 -4.302	-174.276
11377.037	 -4.624	-174.284
11508.912	 -4.952	-174.664
11642.091	 -5.256	-174.728
11776.946	 -5.560	-174.733
11912.920	 -5.863	-174.670
12050.942	 -6.180	-174.802
12191.013	 -6.479	-175.356
12332.015	 -6.762	-175.390
12475.066	 -7.053	-175.087
12619.048	 -7.344	-175.440
12765.080	 -7.628	-175.537
12912.974	 -7.905	-175.623
13062.917	 -8.194	-175.776
13213.977	 -8.480	-175.584
13367.087	 -8.744	-175.863
13522.059	 -9.027	-175.853
13677.962	 -9.276	-175.614
13837.032	 -9.563	-176.060
13997.033	 -9.832	-176.196
14159.083	-10.119	-176.106
14322.996	-10.379	-176.286
14488.958	-10.654	-176.297
14656.037	-10.887	-176.608
14825.910	-11.145	-176.386
14998.019	-11.393	-176.369
15171.990	-11.660	-176.712
15347.078	-11.938	-176.979
15524.961	-12.184	-176.785
15705.079	-12.453	-177.130
15887.059	-12.678	-176.568
16071.089	-12.949	-177.397
16256.981	-13.175	-175.816
16444.921	-13.444	-177.004
16634.911	-13.680	-176.925
16828.068	-13.918	-176.566
17023.087	-14.171	-177.710
17219.968	-14.427	-176.667
17419.085	-14.671	-178.036
17620.996	-14.926	-176.813
17824.955	-15.133	-176.747
18030.964	-15.383	-176.780
18239.953	-15.624	-176.448
18450.990	-15.911	-176.948
18665.008	-16.065	-177.168
18881.075	-16.295	-177.205
19099.936	-16.544	-177.164
19321.032	-16.775	-177.242
19544.922	-17.011	-177.211
19771.047	-17.247	-177.368
19999.966	-17.479	-177.297
20232.052	-17.685	-177.611
20466.000	-17.942	-177.459
20702.928	-18.174	-177.359
20943.023	-18.400	-177.503
21184.981	-18.643	-177.640
21429.919	-18.864	-177.464
21678.954	-19.090	-177.625
21930.039	-19.312	-177.623
22182.986	-19.546	-177.625
22440.031	-19.775	-177.539
22700.056	-19.999	-177.704
22963.062	-20.231	-177.634
23229.048	-20.453	-177.656
23498.014	-20.683	-177.686
23769.960	-20.915	-177.785
24045.072	-21.133	-177.958
24323.910	-21.368	-177.979
24604.984	-21.584	-177.623
24889.968	-21.817	-177.955
25179.051	-22.238	-177.181
25469.996	-22.491	-177.803
25765.039	-22.496	-177.929
26063.062	-22.719	-178.088
26364.997	-22.949	-177.972
26669.912	-23.336	-178.252
26978.925	-23.698	-177.644
27292.036	-23.894	-178.375
27607.940	-24.196	-178.201
27927.011	-24.079	-177.964
28250.925	-24.556	-177.548
28578.006	-24.525	-178.153
28908.998	-25.056	-178.054
29244.088	-25.332	-177.549
29581.971	-25.568	-177.104
29925.071	-25.772	-177.695
29999.949	-25.469	-178.129
