18.09.2024	11:41
Amplitude: 0.50 V
Freq  (Hz) 	 Gain (dB)  	 Phase (deg)
1999.922	  0.554	 -5.616
2023.019	  0.574	 -5.766
2047.047	  0.588	 -5.791
2069.958	  0.607	 -5.890
2093.986	  0.622	 -5.950
2118.945	  0.643	 -6.004
2142.973	  0.659	 -6.166
2167.933	  0.678	 -6.200
2193.078	  0.695	 -6.248
2218.038	  0.715	 -6.404
2243.929	  0.735	 -6.437
2270.006	  0.758	 -6.549
2296.083	  0.781	 -6.615
2323.091	  0.805	 -6.675
2349.913	  0.828	 -6.812
2376.921	  0.849	 -6.950
2405.047	  0.876	 -7.065
2432.056	  0.897	 -7.075
2460.927	  0.923	 -7.197
2489.053	  0.950	 -7.339
2517.924	  0.972	 -7.443
2546.981	  1.000	 -7.586
2576.038	  1.027	 -7.713
2606.027	  1.058	 -7.745
2636.947	  1.086	 -7.962
2666.935	  1.120	 -8.050
2698.041	  1.152	 -8.183
2728.961	  1.181	 -8.268
2760.999	  1.215	 -8.454
2793.036	  1.249	 -8.502
2825.074	  1.283	 -8.738
2858.043	  1.317	 -8.846
2891.012	  1.356	 -8.967
2923.980	  1.392	 -9.108
2958.067	  1.430	 -9.263
2991.967	  1.473	 -9.426
3026.985	  1.511	 -9.550
3062.002	  1.558	 -9.664
3097.951	  1.600	 -9.871
3134.087	  1.643	-10.039
3170.036	  1.688	-10.263
3205.985	  1.735	-10.431
3243.983	  1.784	-10.582
3281.049	  1.834	-10.759
3319.047	  1.884	-10.971
3357.977	  1.941	-11.158
3395.975	  1.992	-11.403
3436.022	  2.046	-11.575
3476.068	  2.105	-11.787
3515.929	  2.162	-12.031
3556.907	  2.224	-12.296
3598.072	  2.281	-12.487
3639.050	  2.342	-12.760
3682.077	  2.408	-12.992
3723.986	  2.477	-13.243
3767.014	  2.551	-13.519
3810.972	  2.623	-13.769
3854.930	  2.693	-14.087
3900.006	  2.772	-14.363
3945.082	  2.852	-14.665
3991.090	  2.929	-15.002
4036.911	  3.008	-15.379
4082.918	  3.094	-15.678
4130.974	  3.185	-16.017
4179.031	  3.278	-16.377
4227.087	  3.371	-16.716
4276.074	  3.465	-17.154
4325.062	  3.562	-17.580
4375.912	  3.662	-18.001
4426.017	  3.766	-18.409
4477.054	  3.879	-18.931
4529.022	  3.992	-19.387
4581.921	  4.111	-19.905
4635.006	  4.232	-20.452
4688.092	  4.351	-20.981
4743.040	  4.481	-21.608
4797.988	  4.614	-22.262
4852.936	  4.749	-22.887
4909.001	  4.892	-23.646
4965.998	  5.035	-24.289
5023.926	  5.192	-25.094
5082.041	  5.478	-25.456
5141.087	  5.501	-26.690
5199.946	  5.663	-27.549
5261.041	  5.940	-28.421
5321.018	  6.093	-29.155
5383.044	  6.289	-30.322
5445.071	  6.469	-31.884
5508.028	  6.672	-32.984
5571.917	  6.837	-34.208
5636.923	  7.079	-35.918
5701.929	  7.255	-37.176
5768.053	  7.474	-38.812
5834.922	  7.716	-40.522
5901.977	  7.897	-42.276
5971.082	  8.110	-44.306
6039.999	  8.340	-46.707
6110.035	  8.542	-48.798
6181.002	  8.745	-51.117
6251.968	  8.913	-53.601
6324.984	  9.101	-56.623
6398.000	  9.303	-59.785
6471.947	  9.456	-62.644
6547.011	  9.599	-65.938
6623.007	  9.699	-69.643
6699.003	  9.760	-73.409
6777.048	  9.841	-77.250
6855.093	  9.830	-81.362
6935.000	  9.793	-85.286
7014.908	  9.714	-89.256
7095.933	  9.590	-93.560
7178.076	  9.447	-97.618
7262.081	  9.202	-101.709
7346.086	  8.955	-105.681
7431.023	  8.683	-109.228
7517.077	  8.368	-112.748
7604.063	  8.028	-116.050
7691.979	  7.672	-118.759
7781.014	  7.271	-122.346
7870.980	  6.847	-125.514
7962.063	  6.472	-128.499
8054.078	  6.033	-130.715
8147.955	  5.674	-132.754
8242.019	  5.254	-135.165
8337.013	  4.848	-137.031
8434.057	  4.423	-138.813
8532.032	  4.017	-140.486
8630.008	  3.606	-142.239
8730.032	  3.202	-143.735
8830.987	  2.803	-145.122
8933.991	  2.401	-146.515
9036.995	  2.000	-147.673
9142.049	  1.602	-148.869
9248.033	  1.224	-150.017
9354.949	  0.850	-151.074
9462.982	  0.481	-151.825
9573.065	  0.103	-152.947
9682.961	 -0.256	-153.761
9796.023	 -0.609	-154.496
9909.086	 -0.959	-155.129
10024.011	 -1.327	-156.202
10140.054	 -1.665	-156.509
10257.028	 -2.008	-157.332
10376.051	 -2.341	-158.029
10496.005	 -2.667	-158.411
10618.009	 -2.990	-159.081
10740.943	 -3.320	-159.483
10864.995	 -3.644	-160.340
10990.910	 -3.947	-160.495
11117.943	 -4.273	-161.316
11247.024	 -4.588	-161.652
11377.037	 -4.904	-162.146
11508.912	 -5.193	-162.636
11642.091	 -5.500	-163.056
11776.946	 -5.784	-163.196
11912.920	 -6.086	-163.548
12050.942	 -6.384	-164.301
12191.013	 -6.677	-164.347
12332.015	 -6.940	-164.556
12475.066	 -7.235	-164.765
12619.048	 -7.511	-165.293
12765.080	 -7.796	-165.640
12912.974	 -8.062	-166.033
13062.917	 -8.349	-166.315
13213.977	 -8.611	-166.446
13367.087	 -8.887	-166.460
13522.059	 -9.154	-167.147
13677.962	 -9.409	-167.071
13837.032	 -9.672	-167.380
13997.033	 -9.956	-167.583
14159.083	-10.209	-167.926
14322.996	-10.481	-168.188
14488.958	-10.733	-168.184
14656.037	-10.987	-168.551
14825.910	-11.228	-168.626
14998.019	-11.482	-168.776
15171.990	-11.742	-168.958
15347.078	-12.002	-169.246
15524.961	-12.254	-169.226
15705.079	-12.509	-169.127
15887.059	-12.766	-169.981
16071.089	-13.001	-170.186
16256.981	-13.273	-169.836
16444.921	-13.507	-169.581
16634.911	-13.726	-170.353
16828.068	-14.012	-171.584
17023.087	-14.245	-171.704
17219.968	-14.481	-170.714
17419.085	-14.720	-170.915
17620.996	-14.977	-171.586
17824.955	-15.187	-171.454
18030.964	-15.411	-171.409
18239.953	-15.645	-171.488
18450.990	-15.884	-171.700
18665.008	-16.115	-171.293
18881.075	-16.351	-171.710
19099.936	-16.579	-171.835
19321.032	-16.824	-172.064
19544.922	-17.048	-171.998
19771.047	-17.288	-172.170
19999.966	-17.514	-172.250
20232.052	-17.744	-172.358
20466.000	-17.980	-172.650
20702.928	-18.212	-172.528
20943.023	-18.442	-172.681
21184.981	-18.666	-172.900
21429.919	-18.888	-172.825
21678.954	-19.120	-172.986
21930.039	-19.344	-173.082
22182.986	-19.577	-173.390
22440.031	-19.809	-173.299
22700.056	-20.027	-173.389
22963.062	-20.265	-173.495
23229.048	-20.479	-173.408
23498.014	-20.709	-173.475
23769.960	-20.935	-173.790
24045.072	-21.160	-173.654
24323.910	-21.392	-173.489
24604.984	-21.615	-173.806
24889.968	-21.840	-174.169
25179.051	-22.060	-174.100
25469.996	-22.287	-174.182
25765.039	-22.513	-174.036
26063.062	-22.737	-174.113
26364.997	-22.962	-174.359
26669.912	-23.195	-174.369
26978.925	-23.732	-174.035
27292.036	-23.640	-174.551
27607.940	-24.172	-174.710
27927.011	-24.084	-174.409
28250.925	-24.319	-174.685
28578.006	-24.540	-174.697
28908.998	-25.076	-174.402
29244.088	-24.982	-174.808
29581.971	-25.198	-174.901
29925.071	-25.817	-173.452
29999.949	-25.880	-175.249
