18.09.2024	11:29
Amplitude: 0.50 V
Freq  (Hz) 	 Gain (dB)  	 Phase (deg)
1999.922	  0.742	 -2.552
2023.019	  0.760	 -2.559
2047.047	  0.778	 -2.574
2069.958	  0.798	 -2.587
2093.986	  0.817	 -2.658
2118.945	  0.833	 -2.666
2142.973	  0.855	 -2.664
2167.933	  0.873	 -2.741
2193.078	  0.898	 -2.816
2218.038	  0.914	 -2.848
2243.929	  0.941	 -2.901
2270.006	  0.960	 -2.882
2296.083	  0.984	 -3.034
2323.091	  1.010	 -3.004
2349.913	  1.033	 -3.105
2376.921	  1.063	 -3.108
2405.047	  1.091	 -3.111
2432.056	  1.109	 -3.226
2460.927	  1.141	 -3.237
2489.053	  1.169	 -3.335
2517.924	  1.196	 -3.380
2546.981	  1.225	 -3.405
2576.038	  1.255	 -3.388
2606.027	  1.287	 -3.502
2636.947	  1.322	 -3.570
2666.935	  1.354	 -3.634
2698.041	  1.384	 -3.674
2728.961	  1.424	 -3.742
2760.999	  1.463	 -3.845
2793.036	  1.503	 -3.871
2825.074	  1.540	 -3.860
2858.043	  1.581	 -3.950
2891.012	  1.619	 -4.016
2923.980	  1.657	 -4.095
2958.067	  1.702	 -4.134
2991.967	  1.746	 -4.249
3026.985	  1.789	 -4.338
3062.002	  1.840	 -4.412
3097.951	  1.884	 -4.489
3134.087	  1.930	 -4.497
3170.036	  1.984	 -4.600
3205.985	  2.033	 -4.699
3243.983	  2.087	 -4.841
3281.049	  2.145	 -4.854
3319.047	  2.200	 -4.970
3357.977	  2.258	 -5.063
3395.975	  2.319	 -5.133
3436.022	  2.377	 -5.225
3476.068	  2.445	 -5.350
3515.929	  2.509	 -5.431
3556.907	  2.578	 -5.567
3598.072	  2.647	 -5.679
3639.050	  2.718	 -5.788
3682.077	  2.794	 -5.915
3723.986	  2.866	 -6.026
3767.014	  2.947	 -6.168
3810.972	  3.027	 -6.223
3854.930	  3.109	 -6.412
3900.006	  3.200	 -6.567
3945.082	  3.287	 -6.761
3991.090	  3.382	 -6.852
4036.911	  3.475	 -7.026
4082.918	  3.575	 -7.173
4130.974	  3.676	 -7.355
4179.031	  3.781	 -7.538
4227.087	  3.892	 -7.713
4276.074	  4.008	 -7.942
4325.062	  4.123	 -8.130
4375.912	  4.248	 -8.336
4426.017	  4.374	 -8.501
4477.054	  4.504	 -8.887
4529.022	  4.641	 -9.065
4581.921	  4.784	 -9.267
4635.006	  4.932	 -9.568
4688.092	  5.084	 -9.841
4743.040	  5.246	-10.183
4797.988	  5.413	-10.495
4852.936	  5.584	-10.869
4909.001	  5.869	-11.215
4965.998	  6.069	-11.639
5023.926	  6.265	-12.196
5082.041	  6.465	-12.447
5141.087	  6.665	-12.579
5199.946	  6.921	-13.666
5261.041	  7.173	-14.238
5321.018	  7.394	-14.315
5383.044	  7.661	-15.249
5445.071	  7.926	-15.807
5508.028	  8.224	-16.611
5571.917	  8.529	-17.516
5636.923	  8.816	-18.318
5701.929	  9.182	-19.596
5768.053	  9.532	-20.615
5834.922	  9.890	-21.248
5901.977	 10.272	-23.122
5971.082	 10.720	-24.509
6039.999	 11.189	-26.481
6110.035	 11.652	-28.616
6181.002	 12.157	-30.833
6251.968	 12.668	-33.164
6324.984	 13.233	-36.415
6398.000	 13.810	-39.840
6471.947	 14.401	-44.159
6547.011	 14.999	-48.994
6623.007	 15.572	-54.693
6699.003	 16.102	-61.440
6777.048	 16.513	-69.291
6855.093	 16.801	-77.484
6935.000	 16.883	-86.648
7014.908	 16.751	-95.880
7095.933	 16.381	-104.773
7178.076	 15.849	-113.154
7262.081	 15.179	-120.301
7346.086	 14.407	-126.675
7431.023	 13.617	-132.301
7517.077	 12.812	-137.190
7604.063	 12.041	-140.904
7691.979	 11.261	-144.596
7781.014	 10.474	-147.329
7870.980	  9.775	-150.046
7962.063	  9.065	-152.219
8054.078	  8.396	-153.542
8147.955	  7.747	-155.654
8242.019	  7.111	-157.107
8337.013	  6.520	-158.270
8434.057	  5.949	-159.231
8532.032	  5.436	-160.752
8630.008	  4.902	-161.711
8730.032	  4.385	-162.558
8830.987	  3.884	-163.316
8933.991	  3.397	-164.178
9036.995	  2.930	-164.671
9142.049	  2.465	-165.381
9248.033	  2.024	-165.796
9354.949	  1.584	-166.541
9462.982	  1.164	-166.831
9573.065	  0.740	-167.494
9682.961	  0.315	-167.895
9796.023	 -0.075	-168.426
9909.086	 -0.454	-168.609
10024.011	 -0.837	-168.800
10140.054	 -1.202	-169.349
10257.028	 -1.589	-170.173
10376.051	 -1.949	-170.201
10496.005	 -2.308	-170.349
10618.009	 -2.644	-170.573
10740.943	 -3.001	-170.829
10864.995	 -3.317	-170.869
10990.910	 -3.659	-171.169
11117.943	 -3.994	-171.496
11247.024	 -4.307	-171.527
11377.037	 -4.652	-172.261
11508.912	 -4.950	-171.938
11642.091	 -5.258	-172.326
11776.946	 -5.567	-172.193
11912.920	 -5.882	-172.495
12050.942	 -6.196	-173.049
12191.013	 -6.483	-172.172
12332.015	 -6.769	-172.976
12475.066	 -7.076	-173.638
12619.048	 -7.369	-173.307
12765.080	 -7.641	-173.459
12912.974	 -7.918	-173.831
13062.917	 -8.199	-173.785
13213.977	 -8.483	-173.878
13367.087	 -8.758	-174.021
13522.059	 -9.032	-174.371
13677.962	 -9.294	-174.110
13837.032	 -9.562	-174.350
13997.033	 -9.837	-174.339
14159.083	-10.107	-174.548
14322.996	-10.374	-174.593
14488.958	-10.636	-174.784
14656.037	-10.894	-174.741
14825.910	-11.142	-174.905
14998.019	-11.384	-174.749
15171.990	-11.659	-175.118
15347.078	-11.934	-175.429
15524.961	-12.183	-175.260
15705.079	-12.414	-175.324
15887.059	-12.680	-175.052
16071.089	-12.938	-175.049
16256.981	-13.192	-175.832
16444.921	-13.435	-174.712
16634.911	-13.676	-175.906
16828.068	-13.928	-175.239
17023.087	-14.192	-175.964
17219.968	-14.413	-176.498
17419.085	-14.653	-174.957
17620.996	-14.883	-175.884
17824.955	-15.159	-175.608
18030.964	-15.370	-175.577
18239.953	-15.595	-176.409
18450.990	-15.839	-176.712
18665.008	-16.062	-175.101
18881.075	-16.305	-176.299
19099.936	-16.537	-176.171
19321.032	-16.777	-176.260
19544.922	-17.007	-176.303
19771.047	-17.240	-176.280
19999.966	-17.469	-176.473
20232.052	-17.708	-176.612
20466.000	-17.938	-176.434
20702.928	-18.168	-176.521
20943.023	-18.401	-176.629
21184.981	-18.629	-176.533
21429.919	-18.862	-176.720
21678.954	-19.090	-176.770
21930.039	-19.314	-176.693
22182.986	-19.548	-176.841
22440.031	-19.768	-176.810
22700.056	-19.994	-176.662
22963.062	-20.224	-176.916
23229.048	-20.466	-176.829
23498.014	-20.677	-176.897
23769.960	-20.909	-177.001
24045.072	-21.134	-176.964
24323.910	-21.362	-177.184
24604.984	-21.590	-176.858
24889.968	-21.824	-177.151
25179.051	-22.046	-177.155
25469.996	-22.269	-177.207
25765.039	-22.490	-177.373
26063.062	-22.972	-177.055
26364.997	-22.944	-177.280
26669.912	-23.170	-177.355
26978.925	-23.612	-177.104
27292.036	-23.626	-177.216
27607.940	-24.121	-177.544
27927.011	-24.075	-177.469
28250.925	-24.690	-177.386
28578.006	-24.527	-177.528
28908.998	-25.088	-178.667
29244.088	-25.363	-177.540
29581.971	-25.495	-177.401
29925.071	-25.408	-177.479
29999.949	-25.847	-176.829
