18.09.2024	11:53
Amplitude: 0.50 V
Freq  (Hz) 	 Gain (dB)  	 Phase (deg)
1999.922	-20.752	156.423
2023.019	-20.541	156.521
2047.047	-20.328	156.660
2069.958	-20.136	157.142
2093.986	-19.928	157.023
2118.945	-19.695	156.890
2142.973	-19.507	157.195
2167.933	-19.293	156.989
2193.078	-19.069	157.370
2218.038	-18.867	157.191
2243.929	-18.646	157.375
2270.006	-18.426	157.542
2296.083	-18.224	157.633
2323.091	-18.001	157.796
2349.913	-17.791	157.758
2376.921	-17.587	157.945
2405.047	-17.350	157.997
2432.056	-17.139	158.001
2460.927	-16.920	158.065
2489.053	-16.699	158.081
2517.924	-16.478	157.974
2546.981	-16.250	158.043
2576.038	-16.032	158.056
2606.027	-15.827	157.958
2636.947	-15.568	158.056
2666.935	-15.357	157.825
2698.041	-15.134	157.915
2728.961	-14.893	158.204
2760.999	-14.651	158.068
2793.036	-14.440	158.368
2825.074	-14.205	158.068
2858.043	-13.972	158.359
2891.012	-13.758	158.219
2923.980	-13.525	158.124
2958.067	-13.282	158.249
2991.967	-13.034	158.275
3026.985	-12.788	158.211
3062.002	-12.555	158.206
3097.951	-12.300	158.111
3134.087	-12.084	158.012
3170.036	-11.834	157.862
3205.985	-11.591	157.886
3243.983	-11.348	157.821
3281.049	-11.104	157.782
3319.047	-10.851	157.803
3357.977	-10.616	157.827
3395.975	-10.364	157.617
3436.022	-10.115	157.427
3476.068	 -9.860	157.364
3515.929	 -9.584	157.519
3556.907	 -9.329	157.174
3598.072	 -9.071	157.251
3639.050	 -8.821	156.936
3682.077	 -8.537	156.899
3723.986	 -8.290	156.672
3767.014	 -8.027	156.514
3810.972	 -7.759	156.275
3854.930	 -7.499	156.282
3900.006	 -7.220	155.952
3945.082	 -6.954	155.889
3991.090	 -6.666	155.497
4036.911	 -6.380	155.461
4082.918	 -6.116	155.158
4130.974	 -5.807	154.756
4179.031	 -5.515	154.630
4227.087	 -5.229	154.265
4276.074	 -4.940	154.006
4325.062	 -4.639	153.792
4375.912	 -4.332	153.325
4426.017	 -4.030	153.183
4477.054	 -3.722	152.664
4529.022	 -3.410	152.354
4581.921	 -3.088	151.896
4635.006	 -2.770	151.314
4688.092	 -2.456	150.772
4743.040	 -2.125	150.423
4797.988	 -1.787	149.795
4852.936	 -1.451	149.320
4909.001	 -1.118	148.627
4965.998	 -0.759	148.061
5023.926	 -0.433	147.597
5082.041	 -0.049	146.566
5141.087	  0.297	145.770
5199.946	  0.644	144.978
5261.041	  1.048	144.131
5321.018	  1.409	143.201
5383.044	  1.790	142.301
5445.071	  2.178	141.105
5508.028	  2.568	139.973
5571.917	  2.971	138.862
5636.923	  3.370	137.462
5701.929	  3.756	135.980
5768.053	  4.167	134.467
5834.922	  4.591	132.825
5901.977	  4.995	131.236
5971.082	  5.389	128.690
6039.999	  5.820	127.046
6110.035	  6.228	124.533
6181.002	  6.603	121.542
6251.968	  7.034	119.389
6324.984	  7.436	116.620
6398.000	  7.822	113.481
6471.947	  8.203	110.699
6547.011	  8.525	107.463
6623.007	  8.847	103.891
6699.003	  9.119	100.091
6777.048	  9.395	 96.477
6855.093	  9.591	 92.752
6935.000	  9.748	 88.454
7014.908	  9.890	 84.497
7095.933	  9.942	 80.279
7178.076	 10.001	 76.322
7262.081	 10.002	 72.584
7346.086	  9.948	 68.800
7431.023	  9.864	 64.817
7517.077	  9.747	 61.710
7604.063	  9.623	 58.319
7691.979	  9.469	 54.932
7781.014	  9.314	 52.236
7870.980	  9.086	 49.034
7962.063	  8.920	 46.677
8054.078	  8.691	 44.231
8147.955	  8.489	 42.136
8242.019	  8.266	 39.656
8337.013	  8.066	 38.825
8434.057	  7.862	 36.290
8532.032	  7.648	 34.522
8630.008	  7.412	 32.846
8730.032	  7.208	 31.202
8830.987	  7.020	 30.149
8933.991	  6.823	 28.992
9036.995	  6.616	 27.492
9142.049	  6.419	 26.395
9248.033	  6.279	 25.387
9354.949	  6.085	 24.507
9462.982	  5.933	 23.710
9573.065	  5.649	 22.897
9682.961	  5.484	 22.056
9796.023	  5.431	 20.875
9909.086	  5.178	 20.617
10024.011	  5.029	 19.954
10140.054	  4.886	 19.291
10257.028	  4.745	 18.633
10376.051	  4.617	 18.085
10496.005	  4.490	 17.584
10618.009	  4.362	 17.034
10740.943	  4.238	 16.486
10864.995	  4.124	 16.022
10990.910	  4.011	 15.604
11117.943	  3.899	 15.194
11247.024	  3.796	 14.761
11377.037	  3.688	 14.305
11508.912	  3.586	 13.994
11642.091	  3.489	 13.588
11776.946	  3.400	 13.280
11912.920	  3.308	 12.925
12050.942	  3.218	 12.545
12191.013	  3.129	 12.333
12332.015	  3.045	 11.983
12475.066	  2.972	 11.774
12619.048	  2.889	 11.456
12765.080	  2.811	 11.172
12912.974	  2.739	 10.972
13062.917	  2.660	 10.719
13213.977	  2.595	 10.419
13367.087	  2.528	 10.243
13522.059	  2.463	 10.081
13677.962	  2.396	  9.792
13837.032	  2.335	  9.600
13997.033	  2.270	  9.443
14159.083	  2.208	  9.235
14322.996	  2.155	  9.036
14488.958	  2.101	  8.832
14656.037	  2.047	  8.603
14825.910	  1.993	  8.511
14998.019	  1.940	  8.307
15171.990	  1.888	  8.159
15347.078	  1.841	  7.954
15524.961	  1.795	  7.786
15705.079	  1.753	  7.667
15887.059	  1.703	  7.557
16071.089	  1.656	  7.383
16256.981	  1.618	  7.352
16444.921	  1.579	  7.212
16634.911	  1.535	  7.089
16828.068	  1.498	  7.055
17023.087	  1.451	  6.739
17219.968	  1.418	  6.758
17419.085	  1.382	  6.647
17620.996	  1.345	  6.501
17824.955	  1.305	  6.289
18030.964	  1.275	  6.242
18239.953	  1.242	  6.082
18450.990	  1.216	  5.932
18665.008	  1.184	  5.865
18881.075	  1.156	  5.973
19099.936	  1.123	  5.818
19321.032	  1.100	  5.715
19544.922	  1.074	  5.659
19771.047	  1.049	  5.444
19999.966	  1.019	  5.439
20232.052	  0.996	  5.329
20466.000	  0.973	  5.205
20702.928	  0.949	  5.131
20943.023	  0.923	  5.103
21184.981	  0.892	  5.015
21429.919	  0.872	  4.899
21678.954	  0.855	  4.939
21930.039	  0.829	  4.772
22182.986	  0.811	  4.740
22440.031	  0.789	  4.603
22700.056	  0.766	  4.516
22963.062	  0.750	  4.568
23229.048	  0.725	  4.374
23498.014	  0.708	  4.400
23769.960	  0.692	  4.340
24045.072	  0.675	  4.421
24323.910	  0.659	  4.206
24604.984	  0.639	  4.072
24889.968	  0.627	  3.983
25179.051	  0.609	  4.036
25469.996	  0.591	  3.927
25765.039	  0.576	  3.995
26063.062	  0.565	  3.801
26364.997	  0.554	  3.935
26669.912	  0.534	  3.750
26978.925	  0.530	  3.668
27292.036	  0.510	  3.684
27607.940	  0.495	  3.602
27927.011	  0.491	  3.503
28250.925	  0.477	  3.510
28578.006	  0.462	  3.501
28908.998	  0.449	  3.415
29244.088	  0.442	  3.311
29581.971	  0.420	  3.261
29925.071	  0.413	  3.208
29999.949	  0.411	  3.310
